1                    ***** LOWTRAN 7 *****
0 CARD 1  *****    5    3    0    0    0    0    0    0    0    0    0    0    0   0.000   0.00
0 CARD 2  *****    0    0    0    0    0    0     0.000     0.000     0.000     0.000     0.000
0 CARD 3  *****     0.000     0.000     0.000     0.000     0.000     0.000    0
0 CARD 4  ***** 10000.000 20000.000    50.000
0 PROGRAM WILL COMPUTE TRANSMITTANCE           
0 ATMOSPHERIC MODEL
          TEMPERATURE =    5     SUBARCTIC   WINTER  
          WATER VAPOR =    5     SUBARCTIC   WINTER  
          OZONE       =    5     SUBARCTIC   WINTER  
                      M4 =     5 M5 =     5 M6 =     5 MDEF =     1
0 SLANT PATH TO SPACE
          H1    =      0.000 KM
          HMIN  =      0.000 KM
          ANGLE =      0.000 DEG
0 FREQUENCY RANGE 
           V1 =      10000.0 CM-1  (      1.00 MICROMETERS)
           V2 =      20000.0 CM-1  (      0.50 MICROMETERS)
           DV =         50.0 CM-1
1
  ATMOSPHERIC PROFILES

   I     Z       P       T        N2       CNTMSLF MOL SCAT     N-1     O3 (UV)  O2 (UV)
        (KM)    (MB)    (K)            (MOL/CM2 KM)   (-)       (-)  (ATM CM/KM) (ATM CM/KM)

   1     0.00 1013.000  257.2  8.543E-01 6.469E+18 1.062E+00 3.092E-04 1.912E-03 4.172E+04
   2     1.00  887.800  259.1  6.490E-01 6.469E+18 9.237E-01 2.690E-04 1.913E-03 3.408E+04
   3     2.00  777.500  255.9  5.071E-01 3.971E+18 8.191E-01 2.385E-04 1.912E-03 2.874E+04
   4     3.00  679.800  252.7  3.951E-01 2.078E+18 7.252E-01 2.112E-04 2.005E-03 2.426E+04
   5     4.00  593.200  247.7  3.100E-01 7.558E+17 6.456E-01 1.880E-04 2.099E-03 2.071E+04
   6     5.00  515.800  240.9  2.444E-01 1.798E+17 5.772E-01 1.681E-04 2.192E-03 1.783E+04
   7     6.00  446.700  234.1  1.913E-01 4.317E+16 5.144E-01 1.498E-04 2.285E-03 1.533E+04
   8     7.00  385.300  227.3  1.488E-01 1.312E+16 4.570E-01 1.331E-04 3.312E-03 1.316E+04
   9     8.00  330.800  220.6  1.147E-01 5.440E+14 4.042E-01 1.178E-04 4.201E-03 1.128E+04
  10     9.00  282.900  217.2  8.586E-02 3.174E+14 3.511E-01 1.023E-04 7.369E-03 9.471E+03
  11    10.00  241.800  217.2  6.273E-02 1.047E+14 3.001E-01 8.742E-05 8.997E-03 7.829E+03
  12    11.00  206.700  217.2  4.584E-02 1.913E+13 2.565E-01 7.473E-05 8.973E-03 6.499E+03
  13    12.00  176.600  217.2  3.346E-02 5.028E+12 2.192E-01 6.385E-05 8.762E-03 5.411E+03
  14    13.00  151.000  217.2  2.446E-02 2.022E+12 1.874E-01 5.459E-05 1.217E-02 4.523E+03
  15    14.00  129.100  217.2  1.788E-02 1.511E+12 1.602E-01 4.667E-05 1.441E-02 3.792E+03
  16    15.00  110.300  217.2  1.305E-02 1.128E+12 1.369E-01 3.988E-05 1.642E-02 3.184E+03
  17    16.00   94.310  216.6  9.582E-03 8.474E+11 1.174E-01 3.419E-05 1.759E-02 2.690E+03
  18    17.00   80.580  216.0  7.024E-03 6.357E+11 1.006E-01 2.929E-05 1.910E-02 2.276E+03
  19    18.00   68.820  215.4  5.145E-03 4.764E+11 8.613E-02 2.509E-05 2.109E-02 1.928E+03
  20    19.00   58.750  214.8  3.765E-03 3.566E+11 7.373E-02 2.148E-05 2.284E-02 1.634E+03
  21    20.00   50.140  214.2  2.754E-03 2.667E+11 6.310E-02 1.838E-05 2.333E-02 1.387E+03
  22    21.00   42.770  213.6  2.012E-03 1.992E+11 5.398E-02 1.572E-05 2.158E-02 1.178E+03
  23    22.00   36.470  213.0  1.469E-03 1.487E+11 4.616E-02 1.344E-05 1.937E-02 1.001E+03
  24    23.00   31.090  212.4  1.072E-03 1.109E+11 3.946E-02 1.149E-05 1.774E-02 8.511E+02
  25    24.00   26.490  211.8  7.818E-04 8.261E+10 3.372E-02 9.821E-06 1.550E-02 7.239E+02
  26    25.00   22.560  211.2  5.695E-04 6.026E+10 2.880E-02 8.388E-06 1.352E-02 6.158E+02
  27    30.00   10.200  216.0  1.125E-04 1.178E+10 1.273E-02 3.708E-06 6.870E-03 2.687E+02
  28    35.00    4.701  222.3  2.290E-05 2.362E+09 5.701E-03 1.661E-06 3.532E-03 1.196E+02
  29    40.00    2.243  234.7  4.805E-06 4.824E+08 2.576E-03 7.504E-07 1.519E-03 5.392E+01
  30    45.00    1.113  247.0  1.096E-06 1.072E+08 1.215E-03 3.538E-07 4.977E-04 2.540E+01
  31    50.00    0.572  259.3  2.690E-07 2.518E+07 5.946E-04 1.732E-07 1.545E-04 1.242E+01
  32    70.00    0.040  245.4  1.429E-09 6.112E+04 4.394E-05 1.280E-08 2.196E-06 9.178E-01
  33   100.00    0.000  218.5  1.902E-13 1.267E-01 5.219E-07 1.520E-10 2.086E-08 8.345E-03
1
  ATMOSPHERIC PROFILES

   I     Z       P       T      CNTMFRN     HNO3    AEROSOL 1 AEROSOL 2 AEROSOL 3 AEROSOL 4 AER1*RH   CIRRUS         RH
        (KM)    (MB)    (K)   MOL/CM2 KM ATM CM/KM   (-)       (-)       (-)       (-)       (-)       (-)      (PERCNT)

   1     0.00 1013.000  257.2  4.601E+21 5.309E-06 0.000E+00 0.000E+00 0.000E+00 0.000E+00 0.000E+00 0.000E+00 8.039E+01
   2     1.00  887.800  259.1  4.002E+21 5.505E-06 0.000E+00 0.000E+00 0.000E+00 0.000E+00 0.000E+00 0.000E+00 6.924E+01
   3     2.00  777.500  255.9  2.781E+21 5.676E-06 0.000E+00 0.000E+00 0.000E+00 0.000E+00 0.000E+00 0.000E+00 6.987E+01
   4     3.00  679.800  252.7  1.782E+21 5.736E-06 0.000E+00 0.000E+00 0.000E+00 0.000E+00 0.000E+00 0.000E+00 6.559E+01
   5     4.00  593.200  247.7  9.569E+20 5.726E-06 0.000E+00 0.000E+00 0.000E+00 0.000E+00 0.000E+00 0.000E+00 6.035E+01
   6     5.00  515.800  240.9  4.175E+20 5.628E-06 0.000E+00 0.000E+00 0.000E+00 0.000E+00 0.000E+00 0.000E+00 5.405E+01
   7     6.00  446.700  234.1  1.823E+20 5.710E-06 0.000E+00 0.000E+00 0.000E+00 0.000E+00 0.000E+00 0.000E+00 5.067E+01
   8     7.00  385.300  227.3  8.929E+19 5.758E-06 0.000E+00 0.000E+00 0.000E+00 0.000E+00 0.000E+00 0.000E+00 5.593E+01
   9     8.00  330.800  220.6  1.609E+19 5.619E-06 0.000E+00 0.000E+00 0.000E+00 0.000E+00 0.000E+00 0.000E+00 2.371E+01
  10     9.00  282.900  217.2  1.067E+19 5.372E-06 0.000E+00 0.000E+00 0.000E+00 0.000E+00 0.000E+00 0.000E+00 2.682E+01
  11    10.00  241.800  217.2  5.240E+18 5.222E-06 0.000E+00 0.000E+00 0.000E+00 0.000E+00 0.000E+00 0.000E+00 1.540E+01
  12    11.00  206.700  217.2  1.915E+18 5.182E-06 0.000E+00 0.000E+00 0.000E+00 0.000E+00 0.000E+00 0.000E+00 6.584E+00
  13    12.00  176.600  217.2  8.386E+17 5.282E-06 0.000E+00 0.000E+00 0.000E+00 0.000E+00 0.000E+00 0.000E+00 3.375E+00
  14    13.00  151.000  217.2  4.547E+17 5.173E-06 0.000E+00 0.000E+00 0.000E+00 0.000E+00 0.000E+00 0.000E+00 2.140E+00
  15    14.00  129.100  217.2  3.361E+17 5.336E-06 0.000E+00 0.000E+00 0.000E+00 0.000E+00 0.000E+00 0.000E+00 1.850E+00
  16    15.00  110.300  217.2  2.481E+17 6.188E-06 0.000E+00 0.000E+00 0.000E+00 0.000E+00 0.000E+00 0.000E+00 1.598E+00
  17    16.00   94.310  216.6  1.844E+17 8.651E-06 0.000E+00 0.000E+00 0.000E+00 0.000E+00 0.000E+00 0.000E+00 1.487E+00
  18    17.00   80.580  216.0  1.368E+17 1.317E-05 0.000E+00 0.000E+00 0.000E+00 0.000E+00 0.000E+00 0.000E+00 1.383E+00
  19    18.00   68.820  215.4  1.014E+17 1.817E-05 0.000E+00 0.000E+00 0.000E+00 0.000E+00 0.000E+00 0.000E+00 1.286E+00
  20    19.00   58.750  214.8  7.512E+16 2.337E-05 0.000E+00 0.000E+00 0.000E+00 0.000E+00 0.000E+00 0.000E+00 1.196E+00
  21    20.00   50.140  214.2  5.560E+16 2.650E-05 0.000E+00 0.000E+00 0.000E+00 0.000E+00 0.000E+00 0.000E+00 1.112E+00
  22    21.00   42.770  213.6  4.111E+16 2.667E-05 0.000E+00 0.000E+00 0.000E+00 0.000E+00 0.000E+00 0.000E+00 1.034E+00
  23    22.00   36.470  213.0  3.037E+16 2.520E-05 0.000E+00 0.000E+00 0.000E+00 0.000E+00 0.000E+00 0.000E+00 9.618E-01
  24    23.00   31.090  212.4  2.242E+16 2.265E-05 0.000E+00 0.000E+00 0.000E+00 0.000E+00 0.000E+00 0.000E+00 8.945E-01
  25    24.00   26.490  211.8  1.654E+16 1.969E-05 0.000E+00 0.000E+00 0.000E+00 0.000E+00 0.000E+00 0.000E+00 8.318E-01
  26    25.00   22.560  211.2  1.206E+16 1.615E-05 0.000E+00 0.000E+00 0.000E+00 0.000E+00 0.000E+00 0.000E+00 7.657E-01
  27    30.00   10.200  216.0  2.357E+15 4.761E-06 0.000E+00 0.000E+00 0.000E+00 0.000E+00 0.000E+00 0.000E+00 1.883E-01
  28    35.00    4.701  222.3  4.727E+14 9.349E-07 0.000E+00 0.000E+00 0.000E+00 0.000E+00 0.000E+00 0.000E+00 4.082E-02
  29    40.00    2.243  234.7  9.655E+13 1.373E-07 0.000E+00 0.000E+00 0.000E+00 0.000E+00 0.000E+00 0.000E+00 5.049E-03
  30    45.00    1.113  247.0  2.146E+13 1.470E-08 0.000E+00 0.000E+00 0.000E+00 0.000E+00 0.000E+00 0.000E+00 7.639E-04
  31    50.00    0.572  259.3  5.091E+12 3.300E-09 0.000E+00 0.000E+00 0.000E+00 0.000E+00 0.000E+00 0.000E+00 1.345E-04
  32    70.00    0.040  245.4  1.854E+10 1.437E-10 0.000E+00 0.000E+00 0.000E+00 0.000E+00 0.000E+00 0.000E+00 2.099E-05
  33   100.00    0.000  218.5  3.169E+05 1.425E-12 0.000E+00 0.000E+00 0.000E+00 0.000E+00 0.000E+00 0.000E+00 4.603E-07
1
  ATMOSPHERIC PROFILES

  (IF A MOLECULE HAS MORE THAN ONE BAND, THEN THE DATA FOR THE FIRST BAND ARE SHOWN.)

   I      Z       P       T      H2O      O3       CO2      CO       CH4      N2O      O2       NH3      NO       NO2      SO2
         (KM)    (MB)    (K) G/CM**2/KM  (                      ATM CM/KM                                                     )
   1     0.00 1013.000  257.2  1.22E-01 2.08E-03 3.06E+01 1.66E-02 1.76E-01 3.59E-02 2.65E+04 5.02E-05 3.09E-05 2.43E-06 3.43E-05
   2     1.00  887.800  259.1  1.07E-01 1.95E-03 2.47E+01 1.26E-02 1.40E-01 2.95E-02 1.93E+04 3.96E-05 2.52E-05 2.01E-06 2.60E-05
   3     2.00  777.500  255.9  7.40E-02 1.87E-03 1.95E+01 9.80E-03 1.12E-01 2.52E-02 1.52E+04 2.89E-05 2.07E-05 1.69E-06 1.94E-05
   4     3.00  679.800  252.7  4.71E-02 1.89E-03 1.54E+01 7.62E-03 8.97E-02 2.15E-02 1.19E+04 1.86E-05 1.70E-05 1.42E-06 1.35E-05
   5     4.00  593.200  247.7  2.50E-02 1.92E-03 1.19E+01 6.03E-03 7.17E-02 1.85E-02 9.55E+03 1.11E-05 1.39E-05 1.19E-06 9.08E-06
   6     5.00  515.800  240.9  1.07E-02 1.97E-03 9.12E+00 4.91E-03 5.70E-02 1.61E-02 7.85E+03 6.11E-06 1.14E-05 1.01E-06 6.51E-06
   7     6.00  446.700  234.1  4.61E-03 2.01E-03 6.92E+00 3.96E-03 4.49E-02 1.39E-02 6.42E+03 3.38E-06 9.32E-06 8.48E-07 4.74E-06
   8     7.00  385.300  227.3  2.22E-03 2.85E-03 5.21E+00 3.10E-03 3.50E-02 1.20E-02 5.23E+03 1.76E-06 7.55E-06 7.09E-07 3.58E-06
   9     8.00  330.800  220.6  3.93E-04 3.53E-03 3.89E+00 2.37E-03 2.71E-02 1.03E-02 4.22E+03 8.78E-07 6.08E-06 5.90E-07 2.73E-06
  10     9.00  282.900  217.2  2.59E-04 5.93E-03 2.93E+00 1.71E-03 2.07E-02 8.50E-03 3.19E+03 3.86E-07 4.83E-06 4.85E-07 2.10E-06
  11    10.00  241.800  217.2  1.28E-04 6.78E-03 2.26E+00 1.18E-03 1.55E-02 6.70E-03 2.26E+03 1.57E-07 3.80E-06 4.00E-07 1.59E-06
  12    11.00  206.700  217.2  4.67E-05 6.33E-03 1.74E+00 8.06E-04 1.15E-02 5.21E-03 1.60E+03 6.33E-08 2.99E-06 3.54E-07 1.23E-06
  13    12.00  176.600  217.2  2.05E-05 5.79E-03 1.34E+00 5.33E-04 8.61E-03 4.12E-03 1.14E+03 2.76E-08 2.35E-06 3.41E-07 9.73E-07
  14    13.00  151.000  217.2  1.12E-05 7.53E-03 1.03E+00 3.30E-04 6.43E-03 3.23E-03 8.06E+02 1.03E-08 1.85E-06 3.88E-07 7.93E-07
  15    14.00  129.100  217.2  8.28E-06 8.34E-03 7.91E-01 1.97E-04 4.79E-03 2.55E-03 5.72E+02 2.76E-09 1.43E-06 5.24E-07 6.53E-07
  16    15.00  110.300  217.2  6.13E-06 8.90E-03 6.09E-01 1.17E-04 3.54E-03 2.00E-03 4.06E+02 8.38E-10 1.08E-06 9.61E-07 5.43E-07
  17    16.00   94.310  216.6  4.56E-06 8.96E-03 4.67E-01 6.97E-05 2.62E-03 1.55E-03 2.91E+02 2.98E-10 8.08E-07 1.44E-06 4.46E-07
  18    17.00   80.580  216.0  3.39E-06 9.14E-03 3.58E-01 4.31E-05 1.93E-03 1.16E-03 2.09E+02 1.17E-10 5.98E-07 1.89E-06 3.42E-07
  19    18.00   68.820  215.4  2.51E-06 9.48E-03 2.74E-01 2.59E-05 1.41E-03 8.46E-04 1.49E+02 5.37E-11 4.48E-07 2.26E-06 2.50E-07
  20    19.00   58.750  214.8  1.86E-06 9.65E-03 2.10E-01 1.55E-05 1.01E-03 5.80E-04 1.07E+02 2.39E-11 3.59E-07 2.50E-06 1.70E-07
  21    20.00   50.140  214.2  1.38E-06 9.26E-03 1.60E-01 1.01E-05 7.22E-04 4.12E-04 7.64E+01 1.09E-11 2.95E-07 2.63E-06 1.12E-07
  22    21.00   42.770  213.6  1.02E-06 8.04E-03 1.22E-01 7.13E-06 5.15E-04 2.80E-04 5.46E+01 6.53E-12 2.51E-07 2.68E-06 7.68E-08
  23    22.00   36.470  213.0  7.56E-07 6.78E-03 9.35E-02 5.41E-06 3.70E-04 2.04E-04 3.89E+01 4.39E-12 2.19E-07 2.64E-06 5.37E-08
  24    23.00   31.090  212.4  5.59E-07 5.83E-03 7.13E-02 4.36E-06 2.66E-04 1.50E-04 2.78E+01 3.05E-12 2.01E-07 2.53E-06 3.99E-08
  25    24.00   26.490  211.8  4.13E-07 4.78E-03 5.44E-02 3.54E-06 1.90E-04 1.12E-04 1.98E+01 2.07E-12 1.98E-07 2.41E-06 3.00E-08
  26    25.00   22.560  211.2  3.01E-07 3.91E-03 4.15E-02 2.91E-06 1.36E-04 8.31E-05 1.41E+01 1.32E-12 2.36E-07 2.36E-06 2.26E-08
  27    30.00   10.200  216.0  6.07E-08 1.38E-03 1.13E-02 9.30E-07 3.00E-05 2.04E-05 2.27E+00 1.63E-13 2.48E-07 1.25E-06 5.88E-09
  28    35.00    4.701  222.3  1.26E-08 4.92E-04 3.22E-03 3.53E-07 6.64E-06 4.23E-06 3.71E-01 1.15E-14 2.18E-07 4.90E-07 1.75E-09
  29    40.00    2.243  234.7  2.71E-09 1.44E-04 1.00E-03 1.79E-07 1.39E-06 7.26E-07 5.93E-02 4.89E-16 1.07E-07 9.17E-08 6.98E-10
  30    45.00    1.113  247.0  6.31E-10 3.27E-05 3.31E-04 1.11E-07 2.70E-07 1.08E-07 1.04E-02 1.39E-17 3.75E-08 9.37E-09 3.88E-10
  31    50.00    0.572  259.3  1.56E-10 7.18E-06 1.16E-04 6.63E-08 5.52E-08 1.46E-08 2.01E-03 1.00E-18 1.16E-08 1.36E-09 2.50E-10
  32    70.00    0.040  245.4  5.78E-13 3.60E-08 1.27E-06 3.26E-09 4.52E-10 1.01E-10 7.41E-06 3.00E-21 2.31E-10 1.83E-11 1.09E-11
  33   100.00    0.000  218.5  9.96E-18 5.95E-11 3.25E-10 1.50E-11 1.59E-13 7.65E-14 4.28E-10 4.80E-25 4.28E-11 2.62E-14 3.26E-16


 CASE 3A: GIVEN H1,H2=SPACE,ANGLE



 SLANT PATH PARAMETERS IN STANDARD FORM

          H1      =      0.000 KM
          H2      =    100.000 KM
          ANGLE   =      0.000 DEG
          PHI     =    180.000 DEG
          HMIN    =      0.000 KM
          LEN     =          0
1CALCULATION OF THE REFRACTED PATH THROUGH THE ATMOSPHERE


  I       ALTITUDE        THETA  DRANGE    RANGE    DBETA     BETA     PHI     DBEND  BENDING    PBAR    TBAR   RHOBAR
      FROM       TO
      (KM)      (KM)      (DEG)    (KM)     (KM)    (DEG)    (DEG)    (DEG)    (DEG)    (DEG)    (MB)    (K)  (GM CM-3)

          H1 TO H2

  1    0.000    1.000    0.000    1.000    1.000    0.000    0.000  180.000    0.000    0.000  950.477  258.13 1.28E-03
  2    1.000    2.000    0.000    1.000    2.000    0.000    0.000  180.000    0.000    0.000  832.536  257.53 1.12E-03
  3    2.000    3.000    0.000    1.000    3.000    0.000    0.000  180.000    0.000    0.000  728.548  254.33 9.97E-04
  4    3.000    4.000    0.000    1.000    4.000    0.000    0.000  180.000    0.000    0.000  636.356  250.24 8.85E-04
  5    4.000    5.000    0.000    1.000    5.000    0.000    0.000  180.000    0.000    0.000  554.321  244.35 7.89E-04
  6    5.000    6.000    0.000    1.000    6.000    0.000    0.000  180.000    0.000    0.000  481.085  237.55 7.05E-04
  7    6.000    7.000    0.000    1.000    7.000    0.000    0.000  180.000    0.000    0.000  415.849  230.75 6.27E-04
  8    7.000    8.000    0.000    1.000    8.000    0.000    0.000  180.000    0.000    0.000  357.914  224.00 5.56E-04
  9    8.000    9.000    0.000    1.000    9.000    0.000    0.000  180.000    0.000    0.000  306.788  218.94 4.87E-04
 10    9.000   10.000    0.000    1.000   10.000    0.000    0.000  180.000    0.000    0.000  262.350  217.20 4.20E-04
 11   10.000   11.000    0.000    1.000   11.000    0.000    0.000  180.000    0.000    0.000  224.250  217.20 3.59E-04
 12   11.000   12.000    0.000    1.000   12.000    0.000    0.000  180.000    0.000    0.000  191.650  217.20 3.07E-04
 13   12.000   13.000    0.000    1.000   13.000    0.000    0.000  180.000    0.000    0.000  163.800  217.20 2.62E-04
 14   13.000   14.000    0.000    1.000   14.000    0.000    0.000  180.000    0.000    0.000  140.050  217.20 2.24E-04
 15   14.000   15.000    0.000    1.000   15.000    0.000    0.000  180.000    0.000    0.000  119.700  217.20 1.92E-04
 16   15.000   16.000    0.000    1.000   16.000    0.000    0.000  180.000    0.000    0.000  102.301  216.91 1.64E-04
 17   16.000   17.000    0.000    1.000   17.000    0.000    0.000  180.000    0.000    0.000   87.442  216.31 1.41E-04
 18   17.000   18.000    0.000    1.000   18.000    0.000    0.000  180.000    0.000    0.000   74.697  215.71 1.20E-04
 19   18.000   19.000    0.000    1.000   19.000    0.000    0.000  180.000    0.000    0.000   63.783  215.11 1.03E-04
 20   19.000   20.000    0.000    1.000   20.000    0.000    0.000  180.000    0.000    0.000   54.443  214.51 8.82E-05
 21   20.000   21.000    0.000    1.000   21.000    0.000    0.000  180.000    0.000    0.000   46.453  213.91 7.55E-05
 22   21.000   22.000    0.000    1.000   22.000    0.000    0.000  180.000    0.000    0.000   39.619  213.31 6.46E-05
 23   22.000   23.000    0.000    1.000   23.000    0.000    0.000  180.000    0.000    0.000   33.779  212.71 5.52E-05
 24   23.000   24.000    0.000    1.000   24.000    0.000    0.000  180.000    0.000    0.000   28.789  212.11 4.72E-05
 25   24.000   25.000    0.000    1.000   25.000    0.000    0.000  180.000    0.000    0.000   24.524  211.51 4.03E-05
 26   25.000   30.000    0.000    5.000   30.000    0.000    0.000  180.000    0.000    0.000   16.403  213.27 2.54E-05
 27   30.000   35.000    0.000    5.000   35.000    0.000    0.000  180.000    0.000    0.000    7.463  218.72 1.13E-05
 28   35.000   40.000    0.000    5.000   40.000    0.000    0.000  180.000    0.000    0.000    3.483  227.63 5.08E-06
 29   40.000   45.000    0.000    5.000   45.000    0.000    0.000  180.000    0.000    0.000    1.683  240.03 2.34E-06
 30   45.000   50.000    0.000    5.000   50.000    0.000    0.000  180.000    0.000    0.000    0.845  252.37 1.12E-06
 31   50.000   70.000    0.000   20.000   70.000    0.000    0.000  180.000    0.000    0.000    0.304  255.02 2.73E-07
 32   70.000  100.000    0.000   30.000  100.000    0.000    0.000  180.000    0.000    0.000    0.020  239.45 1.27E-08




 CUMULATIVE ABSORBER AMOUNTS FOR THE PATH FROM H1 TO Z

  J     Z        TBAR     HNO3        O3 UV      CNTMSLF1   CNTMSLF2    CNTMFRN      O2
       (KM)       (K)   (ATM CM)    (ATM CM)    (MOL CM-2)  (MOL CM-2)  (MOL CM-2)(MOL CM-2)

  1    1.000   258.13   5.407E-06   1.912E-03   6.469E+18   6.469E+18   4.295E+21   3.777E+04
  2    2.000   257.53   1.100E-05   3.825E-03   1.159E+19   1.159E+19   7.650E+21   6.911E+04
  3    3.000   254.33   1.670E-05   5.783E-03   1.451E+19   1.451E+19   9.894E+21   9.554E+04
  4    4.000   250.24   2.244E-05   7.835E-03   1.582E+19   1.582E+19   1.122E+22   1.180E+05
  5    5.000   244.35   2.811E-05   9.981E-03   1.622E+19   1.622E+19   1.187E+22   1.372E+05
  6    6.000   237.55   3.378E-05   1.222E-02   1.632E+19   1.632E+19   1.216E+22   1.538E+05
  7    7.000   230.75   3.951E-05   1.502E-02   1.634E+19   1.634E+19   1.229E+22   1.680E+05
  8    8.000   224.00   4.520E-05   1.877E-02   1.634E+19   1.634E+19   1.233E+22   1.802E+05
  9    9.000   218.94   5.070E-05   2.456E-02   1.634E+19   1.634E+19   1.234E+22   1.905E+05
 10   10.000   217.20   5.599E-05   3.274E-02   1.635E+19   1.635E+19   1.235E+22   1.992E+05
 11   11.000   217.20   6.120E-05   4.173E-02   1.635E+19   1.635E+19   1.235E+22   2.063E+05
 12   12.000   217.20   6.643E-05   5.059E-02   1.635E+19   1.635E+19   1.235E+22   2.122E+05
 13   13.000   217.20   7.166E-05   6.106E-02   1.635E+19   1.635E+19   1.235E+22   2.172E+05
 14   14.000   217.20   7.691E-05   7.436E-02   1.635E+19   1.635E+19   1.235E+22   2.213E+05
 15   15.000   217.20   8.267E-05   8.977E-02   1.635E+19   1.635E+19   1.236E+22   2.248E+05
 16   16.000   216.91   9.009E-05   1.068E-01   1.635E+19   1.635E+19   1.236E+22   2.277E+05
 17   17.000   216.31   1.010E-04   1.251E-01   1.635E+19   1.635E+19   1.236E+22   2.302E+05
 18   18.000   215.71   1.167E-04   1.452E-01   1.635E+19   1.635E+19   1.236E+22   2.323E+05
 19   19.000   215.11   1.375E-04   1.672E-01   1.635E+19   1.635E+19   1.236E+22   2.341E+05
 20   20.000   214.51   1.624E-04   1.903E-01   1.635E+19   1.635E+19   1.236E+22   2.356E+05
 21   21.000   213.91   1.890E-04   2.127E-01   1.635E+19   1.635E+19   1.236E+22   2.369E+05
 22   22.000   213.31   2.149E-04   2.332E-01   1.635E+19   1.635E+19   1.236E+22   2.380E+05
 23   23.000   212.71   2.388E-04   2.517E-01   1.635E+19   1.635E+19   1.236E+22   2.389E+05
